# 
# MS.PreferredSpectrumFormat = 0
# MS.UncentroidingHalfWidth = 0.2
# MS.UncentroidingPointsPerDa = 20
# MS.AlwaysUncentroid = 1
# MS.RegriddingPointsPerDa = 20
# MS.AggregationMethod = 1
# MS.MinPeakCount = 1
# MS.MinPeakCharge = 1
# MS.MaxPeakCharge = 5
# MSMS.PreferredSpectrumFormat = 0
# MSMS.UncentroidingHalfWidth = 0.2
# MSMS.UncentroidingPointsPerDa = 20
# MSMS.AlwaysUncentroid = 1
# MSMS.RegriddingPointsPerDa = 20
# MSMS.AggregationMethod = 2
# MSMS.MinPeakCount = 10
# MSMS.MinPeakCharge = 1
# MSMS.MaxPeakCharge = 2
# MSMS.UsePrecursorAsMaxCharge = 0
# MSMS.PrecursorChargeSources = 1; 0
# MSMS.PrecursorDefaultCharges = 1; 2; 3
# MSMS.RedeterminePrecursorMZ = 1
# MSMS.PrecursorMZTolerance = 2
# MSMS.IgnoreSingleChargedPrecursor = 0
# TimeDomain.MinPrecursorMass = 200
# TimeDomain.MaxPrecursorMass = 4000
# TimeDomain.PrecursorGroupingTolerance = 0.2
# TimeDomain.MaxIntermediateTime = 0
# TimeDomain.MaxIntermediateScans = 5
# TimeDomain.UseIntermediateScanCount = 0
# TimeDomain.MinScansInGroup = 1
# TimeDomain.CollapseMSn = 0
# PeakSelection.MS.FilteringThreshold = 0.7
# PeakSelection.MS.MinFilteringPeakMZ = 50
# PeakSelection.MS.MaxFilteringPeakMZ = 4000
# PeakSelection.MS.FilteringMinSNRatio = 2
# PeakSelection.MS.MinPeakWidth = 0.05
# PeakSelection.MS.ExpectedPeakWidth = 0.2
# PeakSelection.MS.MaxPeakWidth = 0.4
# PeakSelection.MS.MaxIterations = 500
# PeakSelection.MS.RejectWidthOutliers = 0
# PeakSelection.MS.BaselineCorrection = 1
# PeakSelection.MS.BaselineSubtractMethod = 0
# PeakSelection.MS.PeakFitMethod = 0
# PeakSelection.MS.IsotopeEnvelopeMode = 0
# PeakSelection.MS.IsotopePeakIntensities = 
# PeakSelection.MS.SinglePeakCharge = 1
# PeakSelection.MS.SinglePeakWindow = 0
# PeakSelection.MS.MinSglPeakWindowMZ = 112.5
# PeakSelection.MS.MaxSglPeakWindowMZ = 121.5
# PeakSelection.MSMS.FilteringThreshold = 0.7
# PeakSelection.MSMS.MinFilteringPeakMZ = 20
# PeakSelection.MSMS.MaxFilteringPeakMZ = 4000
# PeakSelection.MSMS.FilteringMinSNRatio = 2
# PeakSelection.MSMS.MinPeakWidth = 0.05
# PeakSelection.MSMS.ExpectedPeakWidth = 0.2
# PeakSelection.MSMS.MaxPeakWidth = 0.4
# PeakSelection.MSMS.MaxIterations = 500
# PeakSelection.MSMS.RejectWidthOutliers = 0
# PeakSelection.MSMS.BaselineCorrection = 1
# PeakSelection.MSMS.BaselineSubtractMethod = 0
# PeakSelection.MSMS.PeakFitMethod = 0
# PeakSelection.MSMS.IsotopeEnvelopeMode = 0
# PeakSelection.MSMS.IsotopePeakIntensities = 
# PeakSelection.MSMS.SinglePeakCharge = 1
# PeakSelection.MSMS.SinglePeakWindow = 1
# PeakSelection.MSMS.MinSglPeakWindowMZ = 112.5
# PeakSelection.MSMS.MaxSglPeakWindowMZ = 121.5
# 
_DISTILLER_MDRO_VERSION=2.3.2.0
_DISTILLER_RAWFILE={1}C:\runA\runA_19.d

BEGIN IONS
TITLE= 1 : Scan 136 (rt=19.179) [C:\runA\runA_19.d]
PEPMASS=371.30721 3294.0259
CHARGE=1+
SCANS=136
RTINSECONDS=19.179
71.096626	26.201022
145.0971	60.923338
146.36901	2.6863913
148.0558	7.4625449
83.047393	46.683879
95.084539	12.175682
96.402287	1.05601
201.11058	25.615477
101.37936	4.4999504
203.11702	38.558438
219.82764	1.7171209
112.5	0.6573244
243.76184	11.188782
129.06365	113.97857
258.29751	8.460581
259.41159	6.5280009
136.84222	1.1589881
144.27986	1.3838788
289.09584	1.7367609
147.09205	4.3539007
149.66449	4.6724522
160.66028	1.4041322
164.27223	1.1695329
335.19541	2.2904119
170.4411	1.1927148
191.40239	2.0022474
208.0522	5.2036708
221.13014	8.0475164
221.75595	1.1834281
227.16861	7.3626706
230.59102	1.207039
235.01534	3.0235141
248.98634	9.2240034
253.37449	2.9564069
256.19414	4.8010591
528.81472	7.579403
267.0089	38.3783
267.95714	3.9020818
537.11143	5.877654
271.16704	7.9531816
281.01965	8.16803
282.05447	5.4348967
297.40817	1.2972248
640.58551	1.368393
324.3024	1.2601241
346.8896	1.5353195
355.06055	9.1468695
713.13092	14.982918
380.03766	2.6093141
390.69109	1.347456
392.70775	1.2503282
398.79247	2.1783473
401.23906	3.095705
414.29044	1.817446
441.67979	1.3058809
450.45761	1.309208
482.70451	1.3801581
980.38623	1.670975
493.56696	1.324385
1028.0493	1.9386842
517.61012	1.6415166
576.22874	1.353763
606.11047	1.9124531
642.77106	1.3691621
652.07427	2.5810775
658.42396	1.644653
704.53733	2.2468473
709.58628	1.7447055
724.0463	3.7403784
760.19257	1.785613
764.18736	2.5473377
815.44783	1.3902721
1070.1693	1.9511851
1077.5952	1.4426329
1130.5282	3.0897713
1152.8191	3.4398506
1157.5431	1.391753
1171.4228	1.5031838
1291.8829	2.7206547
1401.9728	1.5834833
END IONS

BEGIN IONS
TITLE= 2 : Scan 444 (rt=57.813) [C:\Zeyu runA\zeyu_runA_19-r003.d]
PEPMASS=294.21098 20228.527
CHARGE=2+
SCANS=444
RTINSECONDS=57.813
117.14871	33.259013
60.069846	27.872614
61.077292	16.001348
123.1386	37.196351
127.19492	1.1517691
130.08178	1.1782068
70.370809	1.1141726
149.19908	7.4643897
150.29641	0.95581222
151.11275	2.5956271
161.53358	1.4395485
169.17892	28.827176
171.15023	14.788312
175.18297	16.697205
90.110331	8.5254496
181.05326	49.517483
185.18072	19.735492
189.14933	6.1290211
192.85201	24.082804
197.09314	8.5271621
101.02561	17.061432
203.15458	7.0000304
205.13329	39.396269
209.11641	8.9621172
107.94289	2.2462189
112.58906	1.082089
116.08025	0.20362104
116.11334	6.5753109
116.4127	1.4629401
117.10058	3.5166975
117.46984	1.6927552
118.06967	21.215357
118.27135	0.059661157
118.6887	1.6899426
119.09262	15.00247
119.47099	1.0844302
251.94839	5.3752033
255.12255	19.882049
257.15817	27.040543
259.11084	7.702544
261.17929	28.778825
263.12815	30.673687
134.10749	23.874086
271.58462	1.1858276
277.17432	22.509095
281.17199	35.775713
285.18743	19.693489
287.22431	7.7585469
145.0886	74.600548
291.09811	13.65555
293.18262	13.044187
294.47604	6.8778794
297.10839	27.25181
298.95732	6.8444156
313.19162	37.589197
317.20831	193.64915
323.23102	76.970536
325.23636	143.38004
165.10555	40.815393
345.30361	14.482375
347.24689	39.575407
349.34334	26.320097
176.13012	112.93542
177.14054	48.132794
355.26086	45.929326
357.22933	20.594671
180.1255	122.72296
363.2719	13.017061
190.14086	6.5951448
191.11532	33.792846
192.20157	4.4552986
385.3633	13.333862
195.20563	5.7835799
200.11734	25.150716
401.19729	44.161809
203.11073	189.95166
205.10709	130.66515
418.57272	3.1020833
210.04111	0.84658502
424.83134	1.5989507
428.84488	9.5989844
435.23957	125.22728
439.25297	65.979501
443.2761	150.17998
447.64382	1.0211151
225.0009	1.4143395
228.13153	5.4884273
455.9375	0.79496874
229.10575	2.7188534
459.31476	2.031726
232.14	23.962726
467.34883	3.4194277
469.27197	6.8849706
238.15316	9.5594246
239.15456	38.572519
483.34009	5.9184773
487.28389	46.39354
246.1464	87.215109
248.15733	124.47985
501.3367	5.0448232
254.9887	1.7131639
515.2879	5.4936693
519.28999	22.033959
524.21464	7.922106
525.22162	14.041361
265.15379	60.76874
271.36931	1.2473782
553.37379	93.349717
279.19544	206.45224
284.11305	5.1746037
574.38961	1.7381517
289.61907	1.5964557
580.29604	1.3090312
293.21194	30.044638
294.21221	178.5336
296.21671	261.29152
596.29643	15.943358
603.18848	1.6302697
303.80954	5.2220361
310.17176	2.0043761
319.53378	3.3926139
320.75853	1.3804107
321.93711	1.0785478
331.96563	1.2592748
370.7423	1.9184708
371.856	0.90407943
377.05231	1.5554571
378.48767	1.276738
380.21473	2.1649012
384.58173	1.2874615
398.41149	1.2903456
404.34117	1.5529866
408.98202	1.2930742
418.61289	1.5987299
421.04054	1.3187278
425.59884	1.8225341
430.71605	1.3233886
438.3535	1.565579
443.3658	1.8338124
463.92245	7.1102882
472.29484	1.5804893
483.79946	1.4091557
514.98104	1.3912349
526.74165	1.3387862
543.2397	1.3436053
549.18295	1.6993252
590.77642	1.6269257
602.88775	1.6315288
608.97651	4.708248
623.93205	3.2636647
630.07729	1.9063519
649.2295	1.4318878
652.23863	2.5820042
673.59705	1.9215405
676.99294	3.0482245
685.86546	1.6654838
693.11084	1.3797271
701.95565	1.9267445
712.42951	1.3827708
723.79029	2.8931876
733.6404	1.68
740.80659	1.4047712
750.13775	1.3828615
757.74084	13.21486
784.49726	6.3914466
799.51167	1.4504321
801.94417	2.2237603
825.42578	1.3894362
834.09965	1.3948523
879.16355	3.3659734
886.8563	1.6747505
898.93605	2.8796891
910.52171	1.4083778
913.51248	1.7045125
940.03732	1.6923539
952.59005	1.4834023
955.08637	1.7131515
974.61029	1.7021252
983.96161	1.4336539
993.50514	1.3999839
1004.5911	5.3190949
1017.3765	2.0650518
1024.8905	1.6681058
1043.5954	1.4073122
1049.2157	1.4528295
1086.7148	1.9310965
1097.3276	1.3779958
1136.1615	1.3723972
1162.221	1.3795349
1176.4462	1.4339494
1186.475	1.3751926
1202.6765	1.3670918
1247.9227	2.1682468
1311.1705	1.3725149
1333.2183	2.1472179
1385.7534	1.5888193
1392.2162	2.9076395
1427.776	17.5845
1525.6908	4.8358327
3747.055	2.792216
2623.2307	2.9578338
2824.4477	2.7837889
END IONS

BEGIN IONS
TITLE= 3 : Scan 450 (rt=58.971) [C:\Zeyu runA\zeyu_runA_19-r003.d]
PEPMASS=294.21174 19053.346
CHARGE=1+
SCANS=450
RTINSECONDS=58.971
59.069175	18.667467
119.12873	77.381601
62.073953	61.315483
65.678329	1.3268734
137.14247	10.928034
138.52069	0.97873142
141.62628	1.9476533
143.50969	2.9945603
147.12764	18.828847
149.22605	5.5726946
151.13533	10.459076
153.20918	12.043877
155.3019	4.7199384
156.43887	0.73634766
160.89027	14.339472
85.078974	8.0311733
170.28782	1.1775608
171.14962	1.5529041
175.17666	19.521274
180.99469	36.711056
185.19126	8.6326429
185.96276	4.9918586
188.54146	1.6610934
192.84167	9.1518568
97.76119	2.1825892
196.82945	8.5287813
100.10894	3.1885532
201.11082	10.88842
103.07855	9.8125474
107.09641	2.6139353
112.83715	1.0883246
114.06991	1.7032034
115.15738	3.8964033
117.09547	8.0897314
118.08674	8.8287344
118.66426	2.5495238
119.08553	2.6471522
122.90504	1.1574328
246.86786	6.7761777
250.19987	1.4712522
251.10595	6.1840799
254.05115	10.478904
257.16361	28.139785
259.15182	8.9101798
261.18805	18.367848
263.15083	42.297928
267.34325	5.3132071
135.08503	16.872432
271.2467	11.218482
277.15567	3.7662128
281.23013	1.8144109
285.20242	14.088826
287.22846	10.282641
289.18691	48.141644
147.10309	36.166324
148.08186	12.472071
297.17701	45.091815
300.95081	23.996284
306.98967	9.5122805
311.23416	12.87439
313.18132	54.2183
317.19853	184.26523
323.22629	72.910741
325.21248	81.05121
165.11448	16.562165
345.32609	24.287651
347.24261	53.008817
176.13106	99.144712
353.32122	124.85243
178.13628	95.649004
180.13844	137.04337
363.27105	10.675887
182.94682	5.7117925
367.42088	4.8264453
186.09925	12.741431
373.15407	16.860055
377.25919	2.0864183
191.09681	18.093665
385.33606	3.9220352
387.95972	6.011238
392.33476	4.0682053
397.15545	6.4099383
401.21313	14.633565
203.10221	317.14366
409.2138	80.441356
413.00006	12.096814
209.42725	1.1547182
214.93886	23.95281
216.17565	20.24806
433.48541	7.1564314
218.13154	79.254024
439.30093	72.597347
443.27724	75.827496
450.11258	1.2572876
229.5066	5.162617
461.404	10.853971
234.13539	4.0054735
235.16467	22.577623
236.14227	4.0652354
473.33823	10.603279
477.34189	15.984531
244.14287	42.787018
491.30858	36.50343
248.15603	82.026827
499.19393	6.6458728
255.0077	1.3007498
516.96366	13.743026
519.72154	4.1483563
261.17264	6.2189403
262.08802	13.03133
265.1568	16.472553
533.48664	3.0694218
271.02024	4.1830076
543.33868	1.1555925
553.35743	59.873588
279.19637	182.1357
287.07444	1.2362883
582.1991	9.7403682
585.43023	10.071277
294.21291	198.59804
588.25219	23.027218
296.22571	228.85183
296.93069	32.547876
298.76381	4.5363404
305.96711	1.2132983
613.43022	2.4723319
307.62671	0.57495181
623.77628	1.3600378
316.08573	1.2561664
318.65577	1.2529522
324.2909	1.261892
348.62945	1.3240225
357.01538	1.5743223
359.0411	1.238096
364.23577	1.6137333
376.63956	1.5389112
427.20482	1.3003452
460.21608	1.588465
482.88924	1.3244233
488.99718	1.3449087
495.61478	1.3250537
502.43091	1.6093655
518.18837	3.0735337
522.41329	1.3864487
523.4362	3.0015251
525.93819	1.606111
529.97636	1.8750888
541.24136	1.8132767
542.41566	0.99575774
550.02313	1.3418228
1119.9743	1.3969535
563.73486	2.7024609
566.1298	1.345875
1144.0373	2.2033733
574.27777	2.7378932
575.64998	1.8887378
585.80286	1.356238
591.88745	1.3754483
602.80102	1.6703739
605.4318	2.4433801
609.67956	3.2707564
618.16122	1.359108
630.0312	2.1900655
727.35546	1.3799973
1462.3258	2.5168027
736.009	1.4432378
747.72132	1.3883914
755.47823	2.2589298
756.72053	1.0288774
762.35027	1.6649289
776.64222	1.6666961
793.40339	1.4102938
798.16045	3.330197
804.71762	6.153811
819.46204	1.3890697
1656.6596	3.9321957
830.9764	1.6094457
839.64332	1.4123444
844.5105	1.9639139
856.66445	3.1146014
870.63156	1.6118745
872.65982	1.206048
879.16264	1.6696384
885.31789	1.4361863
912.38323	1.3935146
915.10016	1.3914605
922.02289	1.3913423
927.1231	2.2544486
939.25973	1.3979607
951.73982	1.3975611
987.90918	1.3474903
997.39794	1.4269775
1000.4044	1.480471
1028.5994	1.5588461
1047.3471	1.9720226
1055.8712	1.445199
1072.6199	1.3810758
1110.7119	1.6743399
1145.5321	2.9333741
1155.942	1.6480167
1173.9571	1.3729391
1183.8045	1.3643409
1190.4517	1.3872076
1225.7695	1.3803703
1238.7715	2.7753459
1301.2869	1.9784839
1312.5382	1.4279474
1321.4669	1.9141333
1329.2629	1.3394063
1341.5975	4.4423073
1348.0509	1.3346976
1372.6525	1.3831374
2498.8782	2.9563728
2849.7859	2.9899204
END IONS

BEGIN IONS
TITLE= 4 : Scan 453 (rt=59.757) [C:\Zeyu runA\zeyu_runA_19-r003.d]
PEPMASS=296.22195 17599.301
CHARGE=1+
SCANS=453
RTINSECONDS=59.757
59.070599	31.895305
119.44061	5.1348812
123.16599	13.925525
62.485814	2.2471818
145.43504	1.1780741
149.1353	6.6681036
155.12651	10.385334
155.70977	1.4412676
160.87028	9.1144261
164.90194	9.5098852
169.13322	33.038195
171.12014	40.97499
173.174	62.381655
175.18417	76.92251
177.15809	15.997292
179.87244	9.326442
180.92892	40.624121
93.10759	16.187606
93.808266	1.2202061
192.82526	6.0094788
196.11143	1.2025783
199.14575	5.9599239
200.04474	2.3074613
201.10086	9.8184311
203.48037	3.362963
205.14337	17.721301
207.09368	19.437453
105.06735	7.8527178
210.6102	1.0565918
115.08681	9.8717038
115.414	2.4726428
115.56557	0.04902792
116.09141	14.045352
116.3033	0.035863726
117.02252	0.10681883
117.09303	22.169389
118.06809	8.7877088
120.03766	9.0797509
120.1394	0.056414411
121.09337	15.727378
121.29604	0.06866204
255.10763	12.96964
259.27704	4.6741655
261.21203	5.0668353
262.55103	0.72128297
263.09745	11.68794
133.07058	2.8299368
267.19486	2.7013492
136.11422	18.630254
273.21591	2.9481716
277.29774	3.2608845
281.17738	9.7353332
282.90275	1.9147049
287.21338	19.015963
289.15704	36.702298
293.18864	13.324047
149.08504	94.938049
149.46989	9.9110455
317.19753	137.58351
319.1858	34.583339
321.20421	58.553503
323.21101	131.5866
325.20736	159.94906
164.08721	81.715485
329.12495	78.521315
340.86319	9.3265427
345.28727	58.394188
349.32899	165.44058
353.28972	46.504762
355.28027	57.860233
179.11778	22.547693
359.26604	122.81547
363.28773	27.29781
369.09688	5.0880598
185.43498	2.6879884
371.66774	0.72346939
377.13581	5.818562
381.29568	29.512212
193.17545	47.94262
196.00898	3.2465906
197.30139	1.6626085
201.10566	37.29819
203.10559	130.27744
406.40076	7.6261608
205.0973	78.42371
413.06442	5.8752664
208.19292	3.2218113
418.28406	3.6552581
426.41532	1.3606389
428.73482	3.8916785
431.30539	4.9454988
433.2991	6.3552736
218.122	65.150485
439.24522	26.89586
222.13521	93.844709
447.43617	2.4492306
230.09805	5.8510768
234.12497	3.5553516
469.2708	9.285855
475.14515	2.0796141
239.15809	8.7288136
239.97248	2.7540588
487.30683	5.8716663
491.28589	51.343415
495.28444	103.78473
499.34456	5.2649388
252.02468	7.935036
260.18617	16.165721
521.33654	10.715547
263.1776	36.82956
527.2895	6.1381275
265.16954	36.601993
536.63358	3.8595529
279.19076	223.58059
563.45988	5.4939735
564.62963	2.1145306
285.69072	1.256209
576.92619	1.9498453
289.3576	0.77552349
296.21428	357.06916
299.29066	71.181468
602.33608	3.0541595
304.89051	1.2462445
308.55973	1.9994902
315.51721	1.5061772
328.07596	1.2574406
332.54978	1.2595592
336.60214	2.2740899
348.4681	1.27146
365.54616	1.2791681
377.82964	1.2863937
385.86371	1.6256731
406.05644	1.5538485
415.46356	2.8720703
419.75915	1.3391034
859.82625	1.6695337
432.32514	4.2000256
444.6901	1.3490418
484.63965	1.3439829
492.22921	1.5955965
494.56901	1.317266
502.94261	1.3495692
514.56329	1.6011486
1107.0643	1.0067411
554.51382	1.3520408
555.91611	1.372226
567.47589	1.6207806
592.49691	1.8980623
614.70114	1.3922725
631.07644	1.6342858
642.75196	1.4552772
655.24772	1.3672241
656.69912	1.3738774
662.99296	1.3731255
700.88541	1.3809562
717.7935	1.6543592
734.15834	1.3807844
746.70026	1.4746374
751.16267	1.6645212
758.64985	4.9845147
764.54653	2.3458933
795.94566	1.3874112
809.66759	1.946959
820.60145	4.7269069
828.3767	1.3965236
835.74127	1.9459773
867.41589	1.4838685
876.74795	3.1056586
891.09233	1.6736901
911.85201	1.4541062
934.36021	1.714063
954.68069	1.3974197
993.78481	1.5101137
1009.0854	1.7572461
1034.3878	1.3900813
1069.8918	1.6818768
1117.3475	1.3981438
1123.2491	1.3743451
1145.5182	1.3746899
1203.408	1.3623611
1212.6138	2.8158662
1227.3565	1.4010888
1242.0811	1.630147
1286.2097	1.434512
1315.5669	1.3602332
1330.1833	1.6179691
1346.3295	1.3351397
1369.4283	1.3291568
1415.0524	1.3335609
1422.1028	1.572072
3434.089	3.1061693
4412.0876	3.2079889
END IONS

BEGIN IONS
TITLE= 5 : Scan 455 (rt=60.419) [C:\Zeyu runA\zeyu_runA_19-r003.d]
PEPMASS=296.21628 17660.391
CHARGE=1+
SCANS=455
RTINSECONDS=60.419
59.071493	33.769518
119.13556	33.906038
123.14014	6.2435583
124.77875	1.068309
127.42245	2.51337
67.07044	2.0398701
134.73732	1.103447
137.12958	10.246355
139.79048	1.1661253
71.059925	5.7518036
148.90541	1.1617581
150.00656	2.4062496
77.564775	1.4133412
78.147451	2.0650776
85.075546	25.039553
171.16536	2.7480823
175.17495	28.420201
177.1486	4.0585933
91.020359	27.279669
185.19979	27.822636
96.439992	1.170233
96.914425	11.791708
201.03256	4.7727599
205.13263	16.945642
105.11871	2.5367187
112.86248	0.093926308
113.06921	13.6226
115.07778	8.9582563
117.09004	25.734063
118.62707	0.08665287
118.66724	4.4922647
118.87519	0.19991167
119.09454	22.366107
121.10819	26.12882
121.32966	0.41890389
121.43352	0.033989094
245.16965	2.5655711
250.37765	1.7063565
253.0914	3.2430111
255.1183	3.7758522
257.1671	12.280808
259.13495	21.329581
261.05228	9.2340232
263.15451	60.348154
134.12925	19.783455
139.07692	13.42083
279.23861	9.6321012
281.04836	34.428193
287.19192	53.033752
289.18196	81.601812
146.0869	40.342049
147.08354	19.479388
295.13924	10.735911
149.09663	92.098335
298.25406	4.9078875
153.06869	5.5776825
315.15484	34.074357
317.17968	145.42643
321.20789	71.089541
323.20504	149.67712
325.21228	206.11745
329.25457	48.043821
333.63516	1.6728631
169.55141	1.6870991
345.31391	15.548135
349.31676	83.405718
351.25309	120.54392
355.27375	40.134648
179.11637	23.345743
180.14365	83.7598
359.90415	6.3651521
182.13904	69.083821
377.16062	6.6173322
191.13541	13.054704
192.16322	5.7916633
193.08554	13.17234
195.18426	15.130115
399.22427	14.76854
401.21152	32.988134
203.11824	99.89117
205.10709	78.229497
413.24114	17.49803
416.31595	1.3590242
210.23775	1.4734861
433.23426	25.019289
435.25255	31.482128
437.2543	38.886023
439.2441	46.279448
221.15283	41.674466
443.27793	115.99642
229.38011	1.5280967
235.15376	13.955482
236.13215	5.331934
473.28688	12.789118
239.14828	10.102864
241.10985	7.6579349
489.26392	9.0647777
246.14258	31.342906
247.16495	11.991294
248.14898	91.115708
499.02796	2.7655205
257.26794	1.7140101
521.43334	17.788977
265.16603	33.243633
266.15545	26.739686
271.45815	2.51834
279.19505	253.7323
283.02268	3.7939561
284.27619	1.4652425
581.6674	1.372534
295.22914	66.394674
296.22207	307.58993
595.10503	17.159465
597.59825	16.731529
312.68407	1.5000731
321.07083	1.2541573
323.45442	1.8201158
331.18143	2.2878088
343.75869	1.5222372
348.60514	1.7773064
353.03355	1.2689908
373.70553	1.725892
376.37183	1.5508809
391.15649	1.7122919
393.09976	1.2566571
804.28892	1.6695432
405.25659	4.9002974
406.60363	1.1950713
412.99493	1.5536384
423.42549	1.6003253
431.54548	1.3020342
442.08626	1.310708
947.00473	2.2288532
481.20409	1.3422109
488.23703	1.3225822
498.26841	1.3259565
1030.2265	1.6663854
519.11968	1.3373852
526.55472	1.3396921
565.87095	1.3326603
1142.6117	1.3702736
575.7863	1.3488091
591.49698	1.6271558
619.13397	9.1549053
631.80229	2.495481
642.36737	1.4665241
661.33529	1.4294434
684.4684	1.6635263
716.40411	1.9482915
719.12123	1.3847398
726.33685	1.6730549
740.99231	1.4738813
747.36147	1.3825054
759.49216	1.9548207
775.2232	1.3855678
781.27706	7.7627342
786.13174	1.9431154
789.92427	1.3897645
852.98053	1.4254826
859.85264	1.7138369
869.97272	2.629333
879.06157	1.3983398
931.1374	1.6744079
941.98189	1.3958759
947.71844	1.673823
957.39947	1.3429467
964.30414	1.7127479
986.49109	1.3888196
1049.6362	2.6398948
1065.434	1.6723673
1095.7308	1.3831381
1115.164	1.6678354
1153.2303	1.8147946
1158.5923	1.3756043
1172.998	1.6395237
1198.3509	1.4243838
1224.3692	1.3750275
1244.9051	1.6415742
1251.4591	2.7227084
1280.8501	1.4066007
1297.0755	2.3304909
1326.2409	1.6024362
1334.4051	1.603762
END IONS

BEGIN IONS
TITLE= 6 : Scan 456 (rt=60.76) [C:\Zeyu runA\zeyu_runA_19-r003.d]
PEPMASS=294.20924 18616.877
CHARGE=1+
SCANS=456
RTINSECONDS=60.76
119.15208	31.771249
122.43582	1.1123838
62.071387	19.108833
67.555489	1.1085248
70.01483	1.5818179
145.08174	27.881234
149.18219	25.797818
78.057154	7.3930498
85.071836	36.026328
171.15404	18.457467
173.57613	7.3796051
177.15662	4.9047009
179.17978	16.187332
181.06143	11.885398
183.9335	1.5724638
93.137753	1.0558303
205.13559	30.501743
105.06873	6.1585752
113.91636	0.023222255
114.10185	13.884472
115.08007	8.308626
116.04903	5.774641
117.13046	7.8085894
118.11437	17.889692
119.0916	3.3928411
119.51131	1.5774666
121.09806	1.1177029
247.1287	2.5040575
248.2614	0.83065756
251.10967	25.161827
255.12894	27.714195
256.42051	1.8641415
131.08782	17.557594
132.07465	12.204396
271.22537	26.016211
277.22533	7.9972553
281.19641	18.643564
285.23351	18.972168
144.09708	10.523231
289.16624	59.005958
293.19684	15.95358
295.19148	21.298714
297.15408	53.761593
311.18819	7.3908142
157.10057	29.79173
315.22297	24.843895
159.10669	256.44533
161.11081	143.91144
323.23813	25.30694
163.11065	97.992615
326.89938	9.35328
327.85898	20.293478
329.22082	20.030045
333.4552	1.4704354
167.70166	4.902897
345.33344	14.068344
347.27686	23.083144
349.31528	41.344157
176.13173	122.18126
177.15112	75.885934
178.13797	31.433555
357.1984	14.896287
180.13805	135.04513
363.26783	11.258872
184.10425	7.0543914
187.11977	17.623449
377.31861	10.727299
378.59299	1.8840778
383.32855	13.448532
385.28446	32.335481
195.17798	10.811172
395.20229	12.927119
201.11393	52.725462
403.24544	36.828413
203.10779	298.88812
409.20967	109.08378
209.76003	2.4692645
431.22035	21.572107
218.13001	89.217759
220.13762	87.723048
222.13831	138.80847
228.05688	2.1911743
230.08561	5.7520451
461.29019	8.4918738
465.33929	6.3129689
235.14866	85.917982
238.12325	4.6091283
477.29562	9.4325167
477.97702	1.6979827
487.28716	47.856522
491.31478	47.188262
248.15203	92.694919
500.04665	8.1609911
253.31348	4.5504965
515.36098	10.149016
517.23126	14.810661
519.31278	22.708597
261.17643	16.716241
525.35461	14.139279
265.17345	37.46057
277.188	111.33537
279.19388	139.26198
581.80075	1.3837392
294.21081	170.60271
296.22131	308.0629
598.45271	1.337415
306.89602	2.2550986
307.74203	1.7359073
317.36814	1.2731998
328.31158	1.2619603
345.01768	1.929627
347.67697	2.0672012
357.92571	1.8931648
372.98467	2.6698302
427.67725	1.3009788
430.63028	1.8548883
458.571	1.5746032
465.60993	1.3366258
474.1227	1.3243143
482.58654	1.5895086
529.98977	1.9132895
547.95646	1.6525987
558.98739	1.6563864
568.44694	1.8856556
606.37614	4.181257
1215.6849	1.1357314
652.33793	5.4762695
720.48589	1.6597235
794.34132	1.393163
804.56881	1.6795511
838.35031	1.9634812
1725.6666	2.6080141
890.963	1.4842229
905.96302	1.3984903
962.33136	1.3901251
1000.964	1.4110027
1022.7437	1.6703551
1041.3915	1.4075295
1092.3619	2.5363118
1102.457	4.6277533
1171.2939	5.4760671
1179.6541	1.3699654
1201.4412	1.3624521
1234.928	1.3627049
1248.9497	1.3481813
1289.8636	1.3440116
1341.1438	1.3649843
1406.8156	4.7974302
END IONS

BEGIN IONS
TITLE= 7 : Scan 462 (rt=61.919) [C:\Zeyu runA\zeyu_runA_19-r003.d]
PEPMASS=296.22041 14824.739
CHARGE=1+
SCANS=462
RTINSECONDS=61.919
59.056502	2.8090557
119.15404	11.640667
122.1459	1.1053303
62.073109	19.286002
124.95483	0.64983932
65.184028	1.9954976
68.388521	1.1128914
138.07275	1.4369294
141.74179	1.1606698
145.09903	6.1162101
146.06038	2.4521305
149.13921	3.0025263
75.38885	0.7288297
151.81891	1.4072534
78.431375	1.0943312
78.81438	1.209021
169.1525	18.268174
170.45225	3.6439701
171.16343	34.687525
88.093999	13.735303
177.18695	8.1939653
181.18488	25.238446
182.55167	3.445141
185.19221	19.622737
96.58403	1.1321706
99.225519	2.6935788
104.11505	18.199161
209.16366	38.551176
213.41964	1.2180269
215.9283	1.4541754
219.76725	1.4680326
115.08856	2.0223752
116.09506	24.958925
116.38581	1.4118785
116.788	1.4770453
117.0911	21.93358
118.42976	1.9437839
118.83423	1.0781791
119.54654	1.0682838
121.11987	16.679921
121.41482	1.9357443
245.24981	1.4799326
247.92476	1.2347768
251.67902	2.4451681
255.72552	1.7220965
259.1418	7.9304707
261.19295	25.134649
263.1376	51.985543
268.74188	1.2652655
136.12507	12.037714
281.1575	13.425141
285.20217	31.44112
287.25575	12.256766
289.19272	53.940981
293.19129	10.492609
295.17065	20.188414
297.18437	57.234378
301.17569	2.6086313
311.22262	2.3398991
317.21145	121.83285
319.19804	43.694694
321.23447	53.425504
323.22965	111.6946
163.11576	95.575412
329.24472	34.824665
332.83545	1.0882182
170.49042	3.1403378
347.32734	24.830381
175.17062	126.47052
351.23447	17.013952
177.17869	56.471737
357.28278	33.577742
359.27215	92.076314
363.28548	9.730479
187.0934	1.8428241
190.14465	4.395273
381.18773	8.7391772
191.82425	2.0783466
385.31005	7.1900502
389.43345	5.9272752
394.12378	1.0233952
200.11926	25.564413
401.25381	16.694344
202.11296	11.354503
203.11724	83.653739
205.11665	78.619723
209.1937	9.7953394
214.89487	17.676709
217.12753	20.928752
435.26533	43.588815
220.12476	30.884324
441.30639	18.585683
222.14344	95.131067
447.30545	3.7608771
229.41255	3.5542795
230.14112	7.2431114
233.16035	9.8082531
471.9508	2.3200778
477.35192	31.044582
483.33211	6.2021869
486.07076	2.7076104
246.1536	47.908953
492.18377	7.9875005
248.15394	27.11185
497.42611	11.440804
500.96718	5.9336467
502.39916	1.7047589
504.25386	2.6770306
505.31309	0.74839635
510.85609	1.3267381
514.56893	4.8346064
519.53614	1.3754736
521.41836	6.0989182
525.3305	22.201528
528.77486	4.5453561
265.18489	40.548959
530.36683	9.1922154
535.05781	1.3555808
548.65496	2.9533804
278.15054	46.914904
279.20026	220.60541
564.09268	3.3778432
284.94702	1.465479
286.99263	2.0089214
295.22817	37.388817
296.22981	302.7918
593.34358	32.527658
601.38716	4.1858843
605.08146	1.3566488
607.65432	1.6953533
312.68677	1.7500939
317.38352	1.6146202
656.14123	1.3664208
332.34028	2.8985906
337.33827	1.277556
347.76283	1.3043812
349.71913	1.2361568
355.65783	1.4785097
356.88454	1.1519825
361.22659	3.8604615
367.48942	3.433902
387.57363	1.2905703
819.8503	2.7698545
415.15237	1.5592908
419.5849	1.5614137
437.22714	1.3461235
454.21933	1.3152646
924.64198	1.4136106
930.97872	1.4251289
470.15664	1.3163511
474.53061	5.4827915
479.98242	1.7016161
482.54832	1.3703685
968.18713	2.3283262
491.88883	1.3276415
500.22752	1.348693
512.94485	1.6633715
1046.9456	1.9706931
527.64743	1.340026
533.52583	1.4002396
554.77295	1.9736817
563.26023	2.1526956
567.90273	1.3635904
583.22957	1.3555875
1179.6845	1.3808654
592.36195	2.994422
600.08026	1.4158658
606.70116	1.3564771
612.83625	1.3579894
614.38194	1.9053296
620.3172	1.7718355
622.4024	1.2370423
626.63887	2.1094288
630.57827	1.3666619
657.54123	1.3720925
1324.6948	2.5125583
666.3636	1.3737243
671.82446	1.7054385
685.93849	1.940103
693.36541	1.6299683
700.08863	1.3808171
706.14522	1.3998473
714.88156	7.7524068
723.37818	1.3863281
735.53072	1.3879732
752.32273	1.3399398
811.12346	1.4510045
838.40139	2.97861
852.4386	1.4532585
862.12242	1.4257851
1737.3079	3.7830853
883.50661	2.8612278
892.48666	1.6736514
962.0993	1.3864724
985.62535	9.0024574
1000.0934	1.3972595
1027.3023	1.4481372
1041.7929	5.2845602
1055.7924	1.3705766
1067.1893	1.934426
1078.6087	1.656458
1085.8562	1.3909842
1108.3857	1.4207212
1113.8239	1.3825967
1145.2516	5.2781423
1149.77	1.8154995
1165.0674	1.3541655
1169.7626	1.6450811
1176.9985	1.3655596
1186.1488	1.3687726
1201.3997	1.3615794
1243.1264	1.3542457
1284.414	1.4057834
1292.0402	1.3659116
1333.753	1.3335381
1343.6182	1.337724
1366.0806	1.3252984
1381.5491	1.3432359
1417.7434	1.3159082
1431.3767	1.590696
2064.9259	5.3487475
END IONS

BEGIN IONS
TITLE= 8 : Scan 465 (rt=62.705) [C:\Zeyu runA\zeyu_runA_19-r003.d]
PEPMASS=296.22223 15319.018
CHARGE=2+
SCANS=465
RTINSECONDS=62.705
59.0786	8.5094716
119.13597	7.9075792
64.975048	1.0876158
65.36065	1.1737676
133.15988	1.1883636
136.00737	1.411265
137.68994	1.1585066
141.25683	2.6812436
71.856626	1.0063686
149.18048	29.964558
151.14345	19.624783
77.140765	16.463697
155.13536	10.469175
163.93166	1.2467621
165.78806	2.6339092
169.1123	10.380808
171.1392	30.054402
173.11696	29.89122
175.16606	11.990415
177.17498	34.273669
179.1879	17.501607
185.19821	3.2489255
188.90079	1.1864763
194.55597	1.2638119
99.081819	9.8149915
199.23744	0.86142684
203.08212	11.86818
103.08041	11.020388
207.07637	6.6805099
210.59622	1.2141548
113.95479	5.1196283
115.07202	4.3578468
115.72276	0.076730383
115.83024	1.1665128
116.07684	17.683487
117.07615	13.020447
118.07414	14.523028
118.33539	1.1309395
119.09201	14.495364
120.33122	3.4142636
123.1225	5.1112134
255.56796	1.4699808
257.27812	10.670775
258.6028	3.2061024
261.24	26.922643
267.22845	20.677127
270.6217	2.1404015
136.10893	16.654204
279.52644	1.3474345
283.23288	26.855848
285.12788	24.237267
287.16317	21.411425
289.21616	23.067855
291.17035	12.759107
293.20129	7.702098
295.1261	6.4227698
149.08705	36.798683
299.12954	29.926081
156.1139	3.571644
317.19581	66.313405
319.15373	29.818788
161.10423	82.581066
323.22812	58.659952
325.22436	127.19875
165.14054	44.332955
166.01895	5.6199304
339.23985	7.6068809
340.97733	18.155006
173.15633	46.668417
347.30189	21.658843
175.16522	166.95543
351.25594	82.454188
353.30255	165.61091
357.21438	29.910998
359.27761	61.56256
361.22671	15.008758
373.04262	1.6857896
375.29029	3.6798733
377.24038	2.3194898
380.4231	6.6249783
381.24553	4.0267518
383.18492	13.452494
385.34969	27.054377
195.1814	16.225321
401.21479	16.940526
203.11709	130.09112
409.2207	99.050391
208.04066	22.243768
430.43444	1.5933975
218.12965	63.368892
439.24021	42.991517
222.14565	127.58361
229.60508	3.8614939
230.10115	11.072423
467.25758	4.5937509
469.31212	6.9083388
471.27577	15.580275
473.30519	9.1031046
477.37599	10.492949
484.52399	6.2214477
486.22498	2.0597643
491.29198	29.75508
248.16151	96.287365
499.27356	11.67865
500.53546	3.2535674
256.08875	1.2193369
521.10622	23.725418
262.14913	10.56898
526.38088	3.1967191
264.19401	10.307201
265.19382	35.095068
533.3874	19.564434
553.36918	11.797082
279.20374	154.46028
283.65502	2.7992159
285.69966	1.9896039
573.88308	3.0927022
290.22852	1.2378393
295.20507	39.819468
296.22601	164.50985
297.1842	41.503717
597.6078	9.9766561
613.16288	1.3745416
310.5559	1.2525009
321.66171	1.264835
328.07793	1.2574178
339.54514	8.4539744
346.69647	1.603743
350.23546	3.3297197
363.98535	1.2739034
366.53076	1.2964853
369.35713	2.3132973
380.49669	1.2857221
382.98916	1.5414016
387.80104	1.2888468
392.52769	1.2908499
396.87238	2.3220381
398.31083	1.2873134
805.89839	3.0113367
811.96378	1.3811663
813.78658	3.8474695
410.0148	1.5568069
416.80072	1.5554771
858.64876	2.7394576
430.31962	0.52342157
435.85375	1.3199896
445.86896	3.4585216
446.89189	0.89576786
896.55964	1.4011621
453.00235	1.3101362
460.34055	1.4003205
467.16025	1.6206156
477.09846	1.3187768
482.61616	1.8654229
978.48935	3.95244
490.29806	0.76485044
499.41061	2.3983588
1019.2007	3.783834
518.76564	2.5335456
522.06328	1.3305377
531.16929	1.3964465
538.16945	1.3383726
545.64405	1.3691031
546.47495	1.6126663
558.17974	1.3441116
1149.0951	1.9339971
578.32121	1.3543241
585.33587	1.3947113
1207.1897	1.3600906
607.71992	1.3634955
616.89698	1.4199677
623.08564	1.3650405
638.54182	1.3807404
648.09594	1.9115634
657.48608	2.7480536
661.30819	1.3925812
663.65097	1.6624577
666.97069	1.5310902
1335.3932	1.6051488
672.72198	1.3768371
688.47723	1.3808859
1381.6619	1.3238066
695.37448	1.3751632
702.73155	1.9734003
706.83397	1.3791894
712.61418	3.0771915
717.26719	1.3834793
721.98173	1.9448614
1449.4319	3.29956
755.29073	2.0065526
815.27813	1.3548673
819.95051	1.4932774
830.46684	1.4128196
838.30082	2.0387876
858.93463	1.3732754
867.87784	5.3489815
889.65611	1.9032456
910.24551	1.4147078
945.44788	1.4533769
965.85519	1.3949485
1981.1503	2.8096735
996.77174	1.6823138
1006.8284	7.4190952
1011.5547	1.3714297
1024.7616	1.7077172
1037.9623	1.3847848
1045.7588	4.9862156
1055.242	1.7040978
1082.2869	1.3914065
1101.6323	2.8806307
1110.4099	1.4381017
1118.9183	1.3799037
1126.2068	1.6487041
1148.6024	1.9185837
1169.6517	1.3668583
1181.3694	1.3697574
1185.8008	1.3866958
1219.5701	2.2021175
1250.3295	1.6232854
1257.5666	2.4359101
1270.2664	1.3484225
2568.626	2.7491798
1292.4799	1.3602096
1314.6992	1.3549271
1333.6979	1.6002254
1359.7059	2.3915443
1368.9676	1.3245308
1395.6152	1.3238387
1425.9976	1.3272954
3265.0806	3.4017408
2846.7759	2.8108727
END IONS

